BEGIN IONS
TITLE=File924 Spectrum909 scans: 1292
PEPMASS=837.71057 0.00000
CHARGE=3+
RTINSECONDS=395
SCANS=1292
220.552 8.28209
221.394 4.08358
222.128 2.47565
223.145 8.15167
224.062 4.77901
225.064 9.80299
226.475 7.57173
227.570 9.03522
228.626 2.38382
229.292 2.9252
229.893 1.99038
230.512 4.95661
231.221 2.10718
232.228 6.1653
233.128 3.673
233.836 2.81228
234.476 3.15607
235.109 2.97897
235.789 3.12616
236.398 2.37076
237.043 5.55686
237.721 2.30121
238.742 7.06597
239.687 6.75206
240.293 5.08502
240.972 2.50348
241.623 2.481
242.654 7.87341
243.575 2.53097
244.214 2.70335
244.868 3.88053
245.999 6.59425
247.055 8.31034
248.117 2.25056
249.190 7.50533
250.031 4.29668
250.720 2.47593
251.697 8.15609
252.645 5.98714
253.273 4.87029
253.963 3.45179
255.027 9.46705
255.900 5.30063
256.532 4.40217
257.551 9.09756
258.625 5.3182
260.119 12.4571
261.426 7.47319
262.364 5.38597
263.065 3.37397
263.699 2.97653
264.779 7.1096
266.224 4.60936
266.956 3.02315
268.042 7.18752
269.173 9.30697
270.562 7.3369
271.435 4.69354
272.058 6.57712
272.681 6.05723
273.454 2.58502
274.380 11.5569
275.191 2.03514
276.044 3.98122
277.020 6.5363
277.927 5.98496
279.300 2.76317
280.283 6.20485
281.290 6.90684
282.281 8.88369
283.180 2.66965
284.273 6.17164
285.160 2.4191
285.804 2.22452
286.732 6.3874
287.614 4.82518
288.282 5.6107
289.393 8.5831
290.440 5.41788
291.519 4.62815
292.654 7.57576
293.668 5.20814
295.211 9.11248
296.641 9.10521
297.440 4.7519
298.043 4.84222
299.157 7.64576
300.106 3.15602
301.379 2.64901
302.393 7.96126
303.255 3.98916
304.233 10.6162
305.297 2.61705
306.296 6.37382
307.063 1.48324
307.780 4.05579
308.538 2.51455
309.487 6.0744
310.692 9.38179
311.774 3.44715
312.747 9.09416
313.951 15.9674
314.933 5.22766
315.651 2.34684
316.311 12.3347
316.968 3.11419
317.635 1.96195
318.706 6.51152
320.167 4.14215
320.877 2.26632
321.858 6.39291
322.771 4.55378
323.491 2.62797
324.129 2.92551
325.187 4.3125
326.108 3.37358
326.720 2.60119
327.375 3.0365
328.498 6.14763
329.281 4.72141
329.979 2.96563
330.627 2.78288
331.644 7.66727
332.876 8.00393
334.253 6.59985
335.200 5.35212
336.464 2.90529
337.471 8.97073
338.372 7.97141
339.336 11.5223
340.770 7.68123
341.587 5.625
342.283 3.99215
342.969 2.6986
343.965 7.24841
344.891 5.55122
345.846 9.57338
347.260 5.37658
348.139 5.20926
349.082 9.13455
350.487 7.45021
351.817 5.53289
352.714 3.07451
353.670 6.47735
354.998 10.7733
355.956 1.20474
356.936 7.63171
357.733 1.75393
358.555 2.0486
359.199 2.90377
360.252 7.39599
361.139 2.96452
361.812 2.26679
362.461 1.81757
363.531 6.0506
364.382 3.24189
365.016 4.00292
366.016 5.73992
367.434 10.7482
368.282 2.88379
369.280 7.43838
370.334 5.30183
371.422 6.92033
372.464 6.15885
373.238 12.1415
374.080 4.93324
374.688 5.38099
375.787 7.76537
377.035 9.10627
378.050 2.72553
378.702 2.56201
379.771 7.59934
380.640 3.17265
381.686 8.74259
382.538 5.21132
383.566 10.6458
384.932 7.09243
386.147 9.7257
387.127 9.95244
388.140 12.7239
389.554 9.78544
390.345 4.08454
391.400 9.53283
392.486 5.47254
393.555 4.36593
394.285 2.33171
395.236 5.65901
396.032 2.32445
396.887 2.63139
397.538 2.27376
398.512 7.0505
399.322 1.02117
400.137 3.03156
400.782 2.26771
401.808 7.47087
403.080 9.75297
403.913 6.44322
405.004 6.71152
405.947 3.46235
406.634 3.11426
407.284 2.49204
408.075 4.68031
409.491 10.5375
410.905 6.98692
411.760 5.27633
412.481 2.48314
413.131 2.25735
414.198 7.43694
415.053 4.9619
415.734 3.68322
416.378 2.30775
417.435 7.92981
418.883 4.65178
419.623 2.7821
420.619 6.03326
421.511 5.28813
422.149 6.43846
423.202 7.07069
424.138 4.49806
425.078 9.1266
426.125 2.2198
427.199 7.37764
428.026 4.19814
428.690 4.23861
429.374 2.57855
430.011 2.63212
430.689 2.45421
431.331 2.89006
431.961 3.19788
432.935 7.19383
433.919 5.41424
434.540 4.92739
435.215 2.31382
435.858 3.49685
436.831 7.09265
437.725 5.23375
438.464 2.69434
439.122 2.21336
439.910 4.35458
441.009 4.91145
441.713 2.57965
442.800 7.39427
444.136 20.3166
444.931 2.72766
446.011 7.7925
447.197 14.3795
448.210 2.8455
449.316 7.91833
450.170 13.4696
451.108 12.1236
452.511 7.304
453.368 4.9207
454.057 3.36711
454.714 3.05818
455.853 7.94767
456.941 11.5861
457.961 2.81123
458.579 2.6423
459.189 6.67374
460.438 4.18809
461.208 3.237
462.323 7.67256
463.109 5.6257
463.801 2.28946
464.452 3.01033
465.085 16.0331
465.726 2.56984
466.659 9.6669
468.030 6.47181
468.969 4.01027
470.148 24.6646
471.300 7.30809
472.207 3.82327
472.892 3.10097
473.544 3.49686
474.200 2.26753
475.324 6.33073
476.104 3.91721
476.792 3.32615
477.847 9.18723
478.705 5.14874
479.397 2.62645
480.040 2.32782
481.045 9.26744
481.795 1.86902
482.648 2.80942
483.298 2.28249
484.282 6.45741
485.126 11.7003
486.222 8.78844
487.185 2.64508
488.320 8.44726
489.089 3.23436
489.792 2.30757
490.852 5.00069
491.689 3.86943
492.357 3.5705
493.375 7.03524
494.776 6.73214
495.508 5.76548
496.275 2.67069
496.935 3.24273
497.933 13.4739
498.881 3.36757
499.856 7.86318
501.133 11.9401
502.132 2.1044
503.087 7.32762
504.085 5.26897
504.694 5.31106
505.382 3.20334
506.032 2.44894
506.909 8.12131
507.880 4.24303
508.633 3.01914
509.755 7.51391
510.841 9.24347
511.878 2.78033
512.895 6.4867
514.140 9.31246
514.984 6.64231
516.123 9.03544
516.898 1.95045
517.638 4.06955
518.380 1.83381
519.277 6.31474
520.316 6.03908
521.307 8.25791
522.203 3.75471
523.011 4.72674
524.142 3.45835
524.874 2.71018
525.844 5.19437
527.096 8.78003
528.122 2.89507
528.767 2.92012
529.570 3.7213
530.999 18.5566
531.912 3.18986
532.581 3.80556
533.229 5.54321
533.970 2.61368
534.924 5.94008
535.867 4.18034
537.021 10.8795
537.870 2.43762
538.715 4.53846
540.050 9.15043
541.111 1.97983
542.152 6.90159
543.214 17.1229
544.760 7.93245
545.478 2.11983
546.569 9.69136
547.931 6.29193
549.181 9.8828
550.212 2.10178
551.096 14.311
552.326 17.2588
553.791 7.87064
555.079 12.2352
556.338 14.2545
557.687 6.50908
558.638 3.77629
559.311 3.06137
560.344 7.65431
561.231 4.29683
561.887 4.91886
562.553 2.04948
563.202 2.88428
563.858 2.11251
564.521 3.0576
565.400 31.0244
566.321 3.35747
567.060 1.94747
567.665 3.38014
568.360 5.13712
569.049 2.53609
569.730 5.48717
570.674 5.10899
571.539 5.17865
572.168 7.04094
573.500 10.9605
574.186 5.76604
575.545 2.74841
576.538 6.06583
577.332 1.28403
578.147 3.40835
578.798 3.18143
579.773 5.63777
581.044 8.81352
581.918 4.87474
582.700 2.81839
583.365 2.89
584.004 3.9535
584.633 2.73266
585.767 10.4254
586.499 5.87188
587.354 19.3596
588.543 2.86532
589.180 2.44819
590.180 21.7826
591.134 2.72938
591.790 2.35619
592.921 6.84489
593.698 4.82849
594.377 2.07193
595.040 3.11117
596.066 7.82303
596.979 3.36997
597.929 9.04815
598.984 6.03109
600.256 26.6723
600.860 2.7168
601.530 1.89853
602.520 6.53608
603.427 2.8312
604.132 2.5477
604.778 1.76905
605.781 6.49371
606.521 2.48318
607.177 16.0209
608.017 2.9712
608.689 3.96587
609.972 2.38799
610.630 2.84073
611.281 2.08662
612.421 16.3758
613.599 9.44929
614.887 6.91465
615.831 5.31524
616.439 4.31592
617.122 2.98885
617.934 16.2448
619.349 9.73261
620.556 16.0085
621.771 5.70391
622.619 12.4696
623.605 2.86881
624.753 7.60627
625.527 5.49105
626.186 6.30361
626.875 2.36801
627.907 7.14907
629.013 10.6543
630.123 3.04889
630.755 3.19364
631.472 6.83369
632.080 2.08292
632.715 2.77404
633.630 8.52903
634.300 46.0157
635.212 4.74543
636.208 14.839
637.363 7.98448
638.840 31.9145
640.158 6.84502
641.165 4.46168
641.774 3.8334
642.467 2.37215
643.497 7.37761
644.382 3.91962
645.060 2.47604
645.720 1.89201
646.365 2.17371
647.402 7.65137
648.182 3.61863
649.300 25.9708
650.664 8.41444
651.557 2.5211
652.208 2.61909
652.846 3.35345
653.937 9.24188
654.803 2.05661
655.460 2.55935
656.492 6.31164
657.747 6.34554
658.924 12.9518
660.667 6.12223
661.297 10.4713
662.250 11.1802
663.265 8.57522
664.594 51.3609
665.744 4.41582
666.458 3.69786
667.150 3.29106
667.792 3.04943
668.451 2.54604
669.300 8.8393
670.320 4.96571
671.424 13.2797
672.520 13.3295
673.608 3.86125
674.295 2.62726
675.347 7.62501
676.170 3.8855
676.789 4.73025
677.540 2.91296
678.588 6.5338
679.749 18.7832
680.790 2.58171
681.781 6.57924
682.695 4.95739
683.853 16.9475
684.956 10.1881
685.891 3.92916
686.841 9.8565
687.712 11.0081
688.418 13.2469
689.599 27.7664
690.531 3.53169
691.690 10.4178
692.404 5.13508
693.767 17.5398
694.451 4.74235
695.403 15.7616
696.323 35.2739
697.430 6.75544
698.670 8.09091
699.482 4.99037
700.216 21.656
701.071 69.6004
702.027 17.5739
702.867 30.1099
703.948 6.79032
705.504 66.7602
706.684 4.95602
707.530 6.18187
708.631 28.635
709.326 3.18273
709.938 4.19225
710.646 1.68988
711.627 9.01571
712.589 11.0992
713.860 41.7121
714.584 3.30575
715.228 2.86986
716.109 15.0079
717.200 27.4137
718.139 8.31477
719.529 67.0053
720.944 24.1448
722.147 20.8855
723.158 9.77528
723.956 22.1925
724.697 15.8581
725.469 29.6732
726.451 11.9714
727.784 9.92633
728.868 2.53853
729.831 4.02989
730.990 53.7472
732.024 4.85877
732.738 1.79345
733.659 11.5934
735.199 21.668
735.963 3.91585
737.258 4.84916
737.962 2.70214
738.994 5.55741
740.297 6.77638
741.533 8.82316
742.524 46.2088
743.760 6.29251
744.817 6.18769
745.908 3.49189
746.922 5.05812
747.706 2.91762
748.738 6.68951
749.631 4.12589
750.308 2.24163
751.314 33.4263
752.312 11.9985
753.677 26.1531
755.277 7.60561
756.510 31.4614
757.463 57.4644
758.537 10.4485
759.744 9.29739
761.424 49.3909
762.552 5.09297
763.310 22.803
764.239 7.04306
765.401 13.3828
766.548 2.70045
767.861 38.5775
769.038 5.48249
769.800 2.41434
770.446 2.24062
771.120 3.15627
772.109 53.5246
773.036 32.392
774.157 54.7947
775.859 49.3487
776.869 2.09587
777.574 4.93529
778.203 5.27407
779.405 48.5991
780.399 34.6112
781.321 5.7871
782.281 69.1049
783.156 12.3848
784.046 3.64187
785.677 17.3957
786.653 47.1756
787.604 52.2187
788.240 36.632
789.353 56.218
790.117 22.9264
790.903 24.9764
791.964 5.93355
792.799 61.534
793.686 67.851
795.020 24.2684
796.175 15.0818
796.792 28.1281
797.633 48.7069
798.821 28.8158
799.666 3.14304
800.272 5.82621
800.970 31.0458
801.954 38.045
803.282 64.9803
804.142 5.88661
805.047 35.9268
806.494 37.5812
807.382 2.76048
808.992 91.9108
809.619 24.8845
811.286 43.5927
812.150 34.5824
813.321 3.86743
813.937 3.5624
814.625 2.71682
815.572 6.86909
817.213 3.21781
817.871 2.30372
818.884 6.66058
819.639 1.67032
820.657 16.4952
821.722 4.35448
822.433 2.86882
823.072 2.83529
823.711 2.421
824.373 2.74938
825.007 2.29792
826.325 2.95544
826.962 2.26995
827.612 1.03805
828.599 4.7245
829.508 3.24684
830.108 4.61261
831.313 6.91627
832.182 3.37371
832.826 2.57959
833.469 2.61564
834.117 2.54465
835.136 6.9302
836.388 17.8042
837.266 4.4943
838.032 17.6403
839.633 20.1748
840.963 7.55931
841.703 2.0515
842.556 2.87608
843.552 7.70722
844.698 9.45841
845.749 2.99382
846.450 1.70462
847.550 11.9377
848.664 8.64865
849.705 2.41376
850.337 10.1393
851.473 1.5379
852.284 7.38461
852.950 2.31517
854.011 4.71997
854.862 4.33533
855.483 4.38924
856.585 10.8438
857.471 1.95427
858.420 9.93475
859.250 19.088
860.598 43.0999
861.735 8.26648
863.014 6.40727
863.995 4.03711
864.936 9.76876
865.947 1.77579
867.077 6.74181
867.874 4.1908
868.941 7.0623
870.342 5.8284
871.114 4.55742
871.789 2.19126
872.779 5.92448
873.535 2.27617
874.326 4.18136
875.045 3.50183
875.727 2.41417
876.476 23.1362
877.837 8.34122
879.252 7.48876
880.549 9.21022
881.469 36.0516
882.420 15.7649
883.443 3.73824
884.468 10.9219
885.288 12.1279
885.953 13.1465
886.952 17.0867
888.040 2.06464
889.014 7.44779
889.852 4.30116
890.634 2.84909
891.285 2.70099
892.106 4.21597
893.573 8.87001
894.746 34.2197
896.183 12.172
897.132 3.03125
897.769 2.82371
898.445 3.49954
899.451 9.95306
900.775 18.0679
901.489 12.8381
902.152 1.58294
902.885 4.50428
903.621 2.30672
904.671 6.39066
906.135 4.18945
906.879 2.71251
908.316 25.9031
909.480 2.20837
910.124 2.18416
911.146 4.1151
912.405 6.44655
913.710 7.07522
914.583 3.76378
915.269 4.16739
915.965 2.70217
916.612 2.44465
917.713 7.28819
918.554 5.18571
919.215 2.17508
920.267 8.77114
921.466 13.4167
922.437 19.1533
923.458 7.25893
924.716 11.6483
925.570 6.8865
926.275 5.40708
926.939 4.34818
928.288 25.5085
928.914 5.3373
930.141 11.2286
930.865 4.74461
932.046 30.1252
933.200 8.09476
934.138 3.7357
934.813 2.79159
935.460 2.27886
936.457 3.73049
937.392 3.48148
938.068 2.7132
938.708 2.64305
939.358 1.60404
940.731 22.6027
941.960 2.7383
942.640 20.2075
943.453 20.3609
944.512 18.9806
945.470 17.2627
946.799 8.97015
947.690 5.61125
948.755 5.44301
949.675 4.04896
950.387 5.89842
951.556 26.7662
952.520 35.9995
953.473 2.26732
954.188 5.80945
955.068 10.7165
956.193 5.01141
957.187 9.22388
958.191 3.59189
959.153 5.11222
960.045 4.75881
960.793 2.69541
961.843 18.7436
963.038 11.1123
964.043 2.64754
965.132 8.76149
965.939 4.90033
966.862 12.2079
968.407 6.28708
969.254 4.91503
970.248 17.5891
971.677 31.5431
972.768 11.2347
973.794 2.69866
974.866 7.06345
976.726 8.91496
977.986 6.89791
978.817 1.29685
979.635 3.0526
980.652 6.50568
981.582 4.6309
982.200 4.30621
982.884 2.74076
983.536 2.67853
984.546 10.5993
985.274 1.69872
986.139 2.34365
986.784 3.3451
987.795 6.35172
988.547 11.6544
989.385 2.22726
990.414 21.7687
991.332 5.37951
991.942 4.35607
992.968 15.8663
993.874 3.49613
995.154 4.22421
996.355 18.3775
997.755 6.78405
998.697 9.23558
1000.226 9.13688
1001.361 10.2825
1002.256 6.53868
1003.408 5.95219
1004.676 7.31659
1005.633 4.46074
1006.722 9.8831
1007.835 12.3469
1008.751 5.9467
1009.450 5.92675
1010.401 8.33745
1011.132 14.6159
1012.456 7.26338
1013.795 8.57381
1014.728 2.4741
1015.566 28.7442
1016.653 4.57029
1017.303 4.10097
1017.969 2.57511
1018.612 2.61412
1019.432 20.5322
1020.461 6.30137
1021.212 2.52236
1021.856 3.40032
1022.984 6.25613
1024.177 12.0022
1025.117 2.3481
1026.197 12.2636
1027.084 7.9498
1027.689 3.79748
1028.364 2.05924
1029.430 7.11568
1030.638 7.20437
1032.041 7.80771
1032.877 5.44295
1033.538 9.213
1034.591 8.01014
1035.426 3.79984
1036.373 7.51549
1037.174 17.4543
1038.406 16.5905
1039.227 1.8125
1040.008 18.5037
1041.041 6.47294
1042.102 5.94972
1043.296 2.85478
1043.956 2.84738
1044.941 6.52508
1045.797 5.61835
1046.439 5.80427
1047.542 8.75677
1048.483 22.5582
1049.667 6.35957
1051.090 16.2339
1051.782 2.66808
1052.407 3.30601
1053.045 2.46736
1054.160 6.66755
1054.955 5.79852
1055.666 2.70823
1056.296 2.85161
1057.300 6.61655
1058.168 2.48989
1058.835 4.26371
1059.545 2.38128
1060.201 2.51623
1061.276 13.5502
1062.153 2.89394
1062.785 3.18174
1063.441 1.69303
1064.294 4.341
1065.323 5.27696
1066.389 7.02074
1067.466 5.10186
1068.888 10.3395
1070.133 11.7658
1071.187 4.761
1071.887 2.55285
1072.544 2.48897
1073.242 1.92018
1075.698 15.4983
1076.857 16.6093
1077.537 2.08569
1078.385 2.4353
1079.002 13.8812
1079.674 2.87681
1080.646 7.31497
1081.631 2.79012
1082.278 2.51867
1083.264 6.57535
1084.125 4.24285
1084.808 3.91523
1085.924 8.45972
1087.401 7.82071
1088.094 3.02292
1088.773 2.8614
1089.415 3.22369
1090.019 5.59061
1090.666 4.40046
1091.617 16.6911
1092.594 5.1177
1093.655 9.49274
1094.631 2.6325
1095.285 2.2267
1096.456 20.9928
1097.161 4.64191
1097.878 2.51288
1098.931 6.97146
1100.472 2.79379
1101.425 6.30402
1102.399 4.66688
1103.291 9.58499
1104.379 2.96528
1105.489 5.83726
1106.482 13.3578
1107.532 8.49554
1108.582 5.61034
1109.377 1.67164
1110.773 23.9333
1111.898 5.67327
1112.516 4.09862
1113.675 26.8066
1114.656 3.51668
1115.392 4.39553
1115.999 2.67679
1116.723 2.18399
1117.369 1.87738
1117.993 1.92823
1118.922 19.1671
1119.969 2.53614
1120.619 2.28839
1121.244 1.93193
1121.884 4.70591
1122.567 2.70977
1123.219 2.01141
1124.237 7.56278
1124.997 1.40028
1125.805 2.53552
1126.513 10.4898
1127.524 23.8383
1128.672 9.40947
1129.584 7.01028
1130.821 6.27687
1131.592 5.89602
1132.226 4.89155
1133.314 8.91454
1134.279 3.11902
1135.219 7.42364
1136.547 9.86631
1137.444 1.92416
1138.820 3.38185
1139.457 2.00977
1140.407 6.06271
1141.358 8.29527
1142.201 40.7411
1143.828 6.9226
1144.568 8.71084
1145.297 3.58457
1146.268 6.12478
1147.203 5.5576
1148.232 7.70151
1149.515 6.30567
1150.496 4.35073
1151.443 18.3057
1152.385 6.82368
1153.128 2.07482
1154.409 3.18715
1155.047 2.61481
1156.044 6.06686
1156.824 1.76366
1157.909 23.8443
1159.305 6.42833
1160.840 2.54451
1161.542 2.2065
1162.185 2.34154
1162.831 2.22006
1163.453 5.07924
1164.152 2.54101
1165.100 6.8798
1166.469 7.95833
1167.269 4.8294
1168.393 7.25796
1169.313 5.37341
1170.334 14.2017
1171.655 7.73564
1172.508 4.0418
1173.155 4.46341
1173.784 6.5888
1174.541 3.3171
1175.562 8.9039
1176.495 3.34306
1177.132 3.09041
1177.782 2.66549
1178.799 6.70109
1179.972 10.902
1181.391 5.91279
1182.330 4.51919
1183.274 8.79829
1184.668 8.18477
1185.559 6.54763
1186.194 3.46692
1186.878 2.3581
1187.533 2.18469
1188.589 6.65038
1189.859 7.18596
1190.772 2.75775
1191.585 3.7672
1193.059 7.97273
1193.934 3.94191
1194.586 3.96892
1195.283 3.9836
1195.984 2.34424
1196.624 2.38026
1197.269 3.35765
1197.952 2.56697
1199.133 5.56292
1199.871 2.46145
1200.530 2.12592
1201.437 3.60427
1202.472 2.24435
1203.128 2.4769
1203.790 3.13253
1204.392 2.00744
1205.041 4.72156
1205.720 3.00035
1206.376 2.86486
1207.396 6.09836
1208.143 1.8529
1208.967 2.31036
1210.006 7.34911
1210.830 3.81872
1211.870 11.3735
1213.161 7.48677
1214.150 4.15455
1214.879 6.7037
1215.615 17.6223
1216.691 3.92053
1217.427 5.00688
1218.032 4.85331
1218.708 2.34893
1219.773 6.74159
1221.857 3.35489
1222.607 3.01989
1223.521 7.26759
1224.538 6.2705
1225.178 2.78573
1226.198 6.72099
1226.991 1.70503
1228.136 8.95101
1229.033 5.3106
1229.849 5.77211
1230.996 4.65345
1231.993 7.94264
1232.909 3.54991
1233.678 6.65264
1234.279 3.95897
1234.960 2.25977
1235.949 5.38268
1236.740 1.31106
1237.489 5.44248
1238.206 2.06338
1239.236 7.2024
1240.386 8.46179
1241.459 2.25638
1242.461 4.51745
1243.768 6.63514
1244.708 2.31406
1245.629 7.10153
1246.882 11.3594
1247.814 11.1248
1248.529 4.41238
1249.253 4.97695
1250.154 9.92697
1251.565 8.93643
1252.485 6.69194
1253.129 5.3305
1253.801 2.42467
1254.848 8.23055
1255.706 4.13589
1256.399 3.70991
1257.051 3.11718
1257.694 1.7094
1258.635 6.58807
1259.543 4.80317
1260.295 3.30718
1260.941 1.93905
1261.564 2.19176
1262.491 10.8085
1263.538 4.2322
1264.632 8.12115
1265.414 4.66246
1266.131 3.2071
1266.795 2.98451
1267.854 5.45564
1268.714 5.08704
1269.394 2.12598
1270.048 2.46073
1270.939 4.90871
1272.003 5.66654
1272.975 10.5043
1273.843 4.19866
1274.500 3.11577
1275.205 4.9038
1275.887 3.63271
1276.540 2.5268
1277.593 6.01085
1279.486 8.90777
1280.330 4.43036
1281.067 6.81417
1281.708 4.92153
1282.381 2.92174
1283.033 2.52791
1283.661 2.62075
1284.307 5.00193
1285.632 2.21022
1286.290 2.83774
1287.290 5.77213
1288.073 1.18903
1288.875 2.96097
1289.525 3.16062
1290.500 6.84623
1291.396 6.50323
1292.127 3.16605
1292.761 2.64018
1293.841 6.28035
1294.621 6.68324
1295.714 7.59166
1296.848 5.16286
1297.793 4.42467
1298.626 2.31782
1299.288 2.3668
1300.226 7.9246
1301.100 5.19113
1301.865 3.69195
1302.993 7.67761
1304.086 9.01444
1305.125 3.36667
1306.043 5.10642
1306.985 5.92484
1307.593 5.56543
1308.776 7.95126
1309.799 5.96463
1310.968 2.65941
1311.757 16.6252
1312.906 3.37943
1313.874 9.7106
1314.875 2.03028
1315.489 2.30173
1316.169 4.82904
1317.060 9.6959
1318.112 2.88574
1319.083 5.02179
1320.003 2.54554
1320.717 2.67739
1321.365 2.43937
1322.226 3.99321
1323.315 2.52199
1324.317 7.51699
1325.351 6.75116
1326.484 4.57831
1327.496 15.66
1328.537 2.5623
1329.805 2.63376
1330.460 2.55227
1331.542 6.83325
1332.699 18.6858
1333.710 3.37154
1334.791 6.71669
1335.627 4.51431
1336.301 2.73891
1337.316 7.75303
1338.193 5.51178
1339.233 7.7116
1340.541 6.74338
1341.518 8.16871
1342.182 2.7725
1342.805 2.64397
1343.454 2.95532
1344.560 8.00024
1345.373 5.18477
1346.053 2.50816
1346.703 2.8818
1347.686 5.0031
1348.604 2.61362
1349.294 2.33865
1350.243 7.47314
1351.065 2.13809
1352.264 8.63058
1353.197 1.68018
1353.874 2.01636
1354.514 3.47853
1355.152 2.49073
1355.791 2.66961
1356.441 1.45082
1357.256 3.109
1358.393 2.29342
1359.050 2.61378
1359.684 2.63597
1360.518 3.15963
1361.642 2.21962
